# 9 May 2019
# Taken from Excel sheet provided by Stephen Kaye
#
# Back Side Illumination History and Overview	
# Temp: No Data, Manufacturer: STA	
# M. Lesser (IISW 2009 Bergen)	
# ITL/STA Red Curve Thick CCD(Pg. 23)	
#
# Wavelength
# (angstrom)  QE
3004.278075   0.626310772
3021.390374   0.611058151
3038.502674   0.588179218
3059.893048   0.565300286
3077.005348   0.542421354
3098.395722   0.519542421
3124.064171   0.494756911
3141.176471   0.475691134
3158.28877    0.460438513
3192.513369   0.431839847
3243.850267   0.428026692
3278.074866   0.431839847
3329.411765   0.445185891
3363.636364   0.45471878
3423.529412   0.468064824
3466.31016    0.475691134
3509.090909   0.481410867
3543.315508   0.481410867
3594.652406   0.485224023
3628.877005   0.494756911
3671.657754   0.508102955
3731.550802   0.527168732
3765.775401   0.542421354
3817.112299   0.565300286
3859.893048   0.591992374
3885.561497   0.611058151
3928.342246   0.637750238
3954.010695   0.651096282
3979.679144   0.666348904
4013.903743   0.681601525
4056.684492   0.693040991
4142.245989   0.706387035
4193.582888   0.710200191
4244.919786   0.717826501
4296.256684   0.719733079
4364.705882   0.72735939
4416.042781   0.738798856
4467.379679   0.763584366
4510.160428   0.792183031
4552.941176   0.815061964
4587.165775   0.830314585
4621.390374   0.839847474
4672.727273   0.846520496
4732.620321   0.846520496
4783.957219   0.847473785
4826.737968   0.855100095
4878.074866   0.870352717
4955.080214   0.887511916
5006.417112   0.893231649
5074.86631    0.90085796
5194.652406   0.908484271
5314.438503   0.914204004
5425.668449   0.918017159
5511.229947   0.921830315
5613.903743   0.924690181
5733.68984    0.926596759
5810.695187   0.926596759
5930.481283   0.92564347
6024.59893    0.92564347
6161.497326   0.923736892
6341.176471   0.919923737
6512.299465   0.916110582
6674.86631    0.910390848
6854.545455   0.904671115
7077.005348   0.897044805
7256.684492   0.891325071
7462.032086   0.885605338
7701.604278   0.877979028
7975.40107    0.870352717
8137.967914   0.862726406
8326.203209   0.855100095
8488.770053   0.845567207
8625.668449   0.834127741
8779.679144   0.816968541
8899.465241   0.802669209
9010.695187   0.786463298
9070.588235   0.775977121
9147.593583   0.761677788
9190.374332   0.7521449
9258.823529   0.738798856
9335.828877   0.721639657
9387.165775   0.708293613
9447.058824   0.693040991
9524.064171   0.672068637
9566.84492    0.660629171
9609.625668   0.649189704
9678.074866   0.632030505
9746.524064   0.611058151
9806.417112   0.591992374
9857.754011   0.572926597
9909.090909   0.555767398
9968.983957   0.530981888
10020.32086   0.511916111
10045.9893    0.496663489
10080.2139    0.477597712
10122.99465   0.452812202
10174.33155   0.424213537
10208.55615   0.400381316
10251.3369    0.374642517
10294.11765   0.344137274
10354.0107    0.309818875
10405.34759   0.275500477
10465.24064   0.244995234
10525.13369   0.220209724
10585.02674   0.191611058
10696.25668   0.151572927
10781.81818   0.122974261
10867.37968   0.096282173
10944.38503   0.071496663
11001.52311   0.053381794
